#K	G0204
#scanned warm
#Wavelength (Ang) transmission
8000.0  6.9459e-05 
8010.0  5.4833e-05 
8020.0  8.8641e-05 
8030.0  6.8569e-05 
8040.0  7.3891e-05 
8050.0  7.2602e-05 
8060.0  9.4705e-05 
8070.0  7.1657e-05 
8080.0  0.00012052 
8090.0  7.7586e-05 
8100.0  8.4235e-05 
8110.0  7.3086e-05 
8120.0  9.6276e-05 
8130.0  3.3684e-05 
8140.0  2.6018e-05 
8150.0  9.3243e-05 
8160.0  9.9014e-05 
8170.0  3.4396e-05 
8180.0  0.00010945 
8190.0  8.9735e-05 
8200.0  8.6859e-05 
8210.0  9.3918e-05 
8220.0  4.7848e-05 
8230.0  0.00010155 
8240.0  5.8463e-05 
8250.0  7.2382e-05 
8260.0  7.9068e-05 
8270.0  0.00011534 
8280.0  9.9258e-05 
8290.0  7.2248e-05 
8300.0  2.8128e-05 
8310.0  7.7746e-05 
8320.0  9.9489e-05 
8330.0  6.9387e-05 
8340.0  0.00015973 
8350.0  0.00010692 
8360.0  4.1226e-05 
8370.0  4.8654e-05 
8380.0  0.0001043  
8390.0  5.9304e-05 
8400.0  4.182e-05  
8410.0  9.6487e-05 
8420.0  7.4389e-05 
8430.0  0.00011191 
8440.0  3.6208e-05 
8450.0  7.0777e-05 
8460.0  7.0671e-05 
8470.0  8.9317e-05 
8480.0  9.9898e-05 
8490.0  9.5148e-05 
8500.0  0.00011331 
8510.0  9.2954e-05 
8520.0  0.00011876 
8530.0  6.8602e-05 
8540.0  5.5031e-05 
8550.0  1.925e-05  
8560.0  0.00011387 
8570.0  9.8634e-05 
8580.0  5.6907e-05 
8590.0  4.7085e-05 
8600.0  9.9041e-05 
8610.0  0.00012941 
8620.0  0.00010542 
8630.0  0.00011705 
8640.0  5.5783e-05 
8650.0  0.00012606 
8660.0  0.00013864 
8670.0  0.00013017 
8680.0  9.6447e-05 
8690.0  8.2573e-05 
8700.0  4.2696e-05 
8710.0  0.00010435 
8720.0  7.3429e-05 
8730.0  9.246e-06  
8740.0  3.0871e-05 
8750.0  7.8185e-05 
8760.0  9.5232e-05 
8770.0  4.8056e-05 
8780.0  7.7682e-05 
8790.0  6.0654e-05 
8800.0  0.0001273  
8810.0  5.1899e-05 
8820.0  1.199e-05  
8830.0  2.2427e-05 
8840.0  7.3478e-05 
8850.0  6.1078e-05 
8860.0  7.8958e-05 
8870.0  0.0001345  
8880.0  6.8942e-05 
8890.0  5.7104e-05 
8900.0  7.5019e-05 
8910.0  0.00011466 
8920.0  0.00011965 
8930.0  3.8108e-06 
8940.0  0.00011697 
8950.0  0.00011808 
8960.0  3.9673e-05 
8970.0  0.00013668 
8980.0  4.5704e-05 
8990.0  0.00012921 
9000.0  0.00010753 
9010.0  5.7161e-05 
9020.0  0.00010967 
9030.0  0.00015518 
9040.0  0.00013047 
9050.0  6.5773e-05 
9060.0  0.00013077 
9070.0  9.471e-05  
9080.0  5.1756e-05 
9090.0  0.00010341 
9100.0  5.7311e-05 
9110.0  0.00010149 
9120.0  9.7968e-05 
9130.0  3.7936e-05 
9140.0  9.8597e-05 
9150.0  8.5651e-05 
9160.0  8.4812e-05 
9170.0  9.3544e-05 
9180.0  8.3161e-05 
9190.0  8.4499e-05 
9200.0  7.9388e-05 
9210.0  0.00010265 
9220.0  5.5276e-05 
9230.0  0.00013228 
9240.0  5.8437e-05 
9250.0  6.8694e-05 
9260.0  4.7783e-05 
9270.0  5.4266e-05 
9280.0  4.4962e-05 
9290.0  8.9117e-05 
9300.0  0.00015225 
9310.0  0.00010251 
9320.0  8.9439e-05 
9330.0  0.00018397 
9340.0  6.1824e-05 
9350.0  0.00014547 
9360.0  9.8104e-05 
9370.0  0.00016708 
9380.0  5.3019e-05 
9390.0  0.00014185 
9400.0  7.8105e-05 
9410.0  8.0981e-05 
9420.0  0.00010344 
9430.0  5.9523e-05 
9440.0  3.1879e-05 
9450.0  0.0001287  
9460.0  9.528e-05  
9470.0  0.00011932 
9480.0  3.4231e-05 
9490.0  0.00011474 
9500.0  3.1702e-05 
9510.0  0.00011521 
9520.0  0.00012466 
9530.0  9.3575e-05 
9540.0  7.3292e-05 
9550.0  9.3562e-05 
9560.0  0.0001029  
9570.0  3.9514e-05 
9580.0  6.9182e-05 
9590.0  8.8878e-05 
9600.0  0.00010348 
9610.0  7.161e-05  
9620.0  7.9165e-05 
9630.0  9.3513e-05 
9640.0  0.00010743 
9650.0  7.6372e-05 
9660.0  8.6786e-05 
9670.0  5.9491e-05 
9680.0  0.00011015 
9690.0  6.4636e-05 
9700.0  0.0001031  
9710.0  0.00012767 
9720.0  8.8862e-05 
9730.0  5.0655e-05 
9740.0  9.9671e-05 
9750.0  0.00014229 
9760.0  0.00012344 
9770.0  5.1159e-05 
9780.0  0.00010278 
9790.0  4.7026e-05 
9800.0  3.8705e-05 
9810.0  0.00013605 
9820.0  4.654e-05  
9830.0  7.244e-05  
9840.0  6.122e-05  
9850.0  0.00013417 
9860.0  8.1442e-05 
9870.0  4.6485e-05 
9880.0  6.5571e-05 
9890.0  0.00010596 
9900.0  6.0623e-05 
9910.0  7.1322e-05 
9920.0  5.6503e-05 
9930.0  0.00013106 
9940.0  0.00012698 
9950.0  0.00010726 
9960.0  9.4122e-05 
9970.0  9.3904e-05 
9980.0  9.6986e-05 
9990.0  0.00010704 
10000.0 6.8309e-05 
10010.0 3.4049e-05 
10020.0 0.00011122 
10030.0 5.9558e-05 
10040.0 6.5032e-05 
10050.0 2.4743e-05 
10060.0 9.3921e-05 
10070.0 0.0001527  
10080.0 9.7334e-05 
10090.0 0.00014358 
10100.0 8.1194e-05 
10110.0 3.408e-05  
10120.0 0.000127   
10130.0 8.4757e-05 
10140.0 9.3333e-05 
10150.0 0.00011331 
10160.0 3.5231e-05 
10170.0 0.00014223 
10180.0 9.3749e-05 
10190.0 8.8248e-05 
10200.0 8.9266e-05 
10210.0 5.5178e-05 
10220.0 6.8008e-05 
10230.0 0.00013188 
10240.0 5.9042e-05 
10250.0 4.9966e-05 
10260.0 7.3486e-05 
10270.0 0.00013384 
10280.0 3.8652e-05 
10290.0 0.00010951 
10300.0 8.4537e-05 
10310.0 6.8246e-05 
10320.0 9.3123e-05 
10330.0 7.1975e-05 
10340.0 8.1294e-05 
10350.0 8.837e-05  
10360.0 4.1471e-05 
10370.0 0.00013053 
10380.0 0.00013622 
10390.0 9.1963e-05 
10400.0 3.8665e-05 
10410.0 8.0534e-05 
10420.0 0.00011227 
10430.0 8.541e-05  
10440.0 8.045e-05  
10450.0 5.9233e-05 
10460.0 5.1412e-06 
10470.0 5.4492e-05 
10480.0 5.9558e-05 
10490.0 0.00011356 
10500.0 4.1376e-05 
10510.0 5.4433e-05 
10520.0 5.2226e-05 
10530.0 7.9243e-05 
10540.0 3.7554e-05 
10550.0 5.06e-05   
10560.0 0.00010235 
10570.0 9.6437e-05 
10580.0 6.9141e-05 
10590.0 0.00011352 
10600.0 9.7931e-05 
10610.0 0.0001013  
10620.0 0.00014878 
10630.0 6.3062e-05 
10640.0 5.1025e-05 
10650.0 0.00010532 
10660.0 0.00011044 
10670.0 6.2964e-05 
10680.0 5.1057e-05 
10690.0 0.00012222 
10700.0 7.5122e-05 
10710.0 8.5557e-05 
10720.0 0.0001267  
10730.0 0.00010914 
10740.0 9.4653e-05 
10750.0 0.00011358 
10760.0 8.8164e-05 
10770.0 8.089e-05  
10780.0 0.00011372 
10790.0 5.5431e-05 
10800.0 6.7763e-05 
10810.0 7.6136e-05 
10820.0 5.9941e-05 
10830.0 6.7902e-05 
10840.0 0.00012333 
10850.0 0.00011027 
10860.0 0.00014003 
10870.0 8.8745e-05 
10880.0 0.00010205 
10890.0 4.6118e-05 
10900.0 0.0001181  
10910.0 0.00013513 
10920.0 8.5596e-05 
10930.0 9.1823e-05 
10940.0 7.1675e-05 
10950.0 5.4918e-05 
10960.0 7.6774e-05 
10970.0 5.4157e-05 
10980.0 1.8003e-05 
10990.0 8.4287e-05 
11000.0 9.3143e-05 
11010.0 6.8276e-05 
11020.0 0.00011927 
11030.0 8.8647e-05 
11040.0 8.011e-05  
11050.0 3.4239e-05 
11060.0 0.00013222 
11070.0 1.2728e-05 
11080.0 8.0236e-05 
11090.0 0.00010225 
11100.0 6.8232e-05 
11110.0 9.3398e-05 
11120.0 7.1854e-05 
11130.0 0.00013085 
11140.0 0.00010642 
11150.0 9.7939e-05 
11160.0 9.3705e-05 
11170.0 9.793e-05  
11180.0 0.0001276  
11190.0 8.9458e-05 
11200.0 0.00014016 
11210.0 0.00013164 
11220.0 3.7715e-05 
11230.0 9.8222e-05 
11240.0 0.00011059 
11250.0 4.7077e-05 
11260.0 0.00012342 
11270.0 8.0977e-05 
11280.0 8.9311e-05 
11290.0 8.0274e-05 
11300.0 0.00013267 
11310.0 0.00014422 
11320.0 0.00011478 
11330.0 2.9674e-05 
11340.0 0.00016139 
11350.0 0.00012741 
11360.0 0.0001102  
11370.0 4.724e-05  
11380.0 6.7179e-05 
11390.0 7.7166e-05 
11400.0 9.6723e-05 
11410.0 7.2769e-05 
11420.0 6.8093e-05 
11430.0 5.4491e-05 
11440.0 8.5497e-05 
11450.0 0.0001012  
11460.0 0.00016591 
11470.0 3.3228e-05 
11480.0 3.7365e-05 
11490.0 0.00013154 
11500.0 9.4617e-05 
11510.0 0.00013843 
11520.0 3.5481e-05 
11530.0 6.3101e-05 
11540.0 0.00011827 
11550.0 4.2543e-05 
11560.0 7.2932e-05 
11570.0 6.3296e-05 
11580.0 8.359e-05  
11590.0 0.000107   
11600.0 0.00010315 
11610.0 7.5379e-05 
11620.0 5.4453e-05 
11630.0 7.6564e-05 
11640.0 7.3816e-05 
11650.0 0.00010963 
11660.0 3.7409e-05 
11670.0 0.00011053 
11680.0 9.4606e-05 
11690.0 4.556e-05  
11700.0 0.00010554 
11710.0 8.9071e-05 
11720.0 8.107e-05  
11730.0 0.00011807 
11740.0 0.0001007  
11750.0 9.7819e-05 
11760.0 6.8468e-05 
11770.0 8.8678e-05 
11780.0 2.3635e-05 
11790.0 0.00011529 
11800.0 8.9704e-05 
11810.0 9.6095e-05 
11820.0 3.715e-05  
11830.0 0.000119   
11840.0 8.1201e-05 
11850.0 0.00011379 
11860.0 7.9564e-05 
11870.0 2.5508e-05 
11880.0 0.000119   
11890.0 0.00011816 
11900.0 0.00010945 
11910.0 6.3507e-05 
11920.0 5.1518e-05 
11930.0 4.5794e-05 
11940.0 5.9014e-05 
11950.0 0.00010551 
11960.0 0.00013126 
11970.0 0.00014404 
11980.0 0.0001182  
11990.0 5.0853e-05 
12000.0 -4.3735e-06
12010.0 9.7678e-05 
12020.0 0.00011476 
12030.0 0.00010595 
12040.0 5.0816e-05 
12050.0 5.5484e-05 
12060.0 5.5086e-05 
12070.0 8.841e-05  
12080.0 0.00011406 
12090.0 3.0014e-05 
12100.0 0.00013183 
12110.0 5.9544e-05 
12120.0 3.4032e-05 
12130.0 9.284e-05  
12140.0 5.956e-05  
12150.0 5.1056e-05 
12160.0 2.134e-05  
12170.0 0.00010198 
12180.0 7.224e-05  
12190.0 0.00010196 
12200.0 7.2158e-05 
12210.0 4.6799e-05 
12220.0 6.7898e-05 
12230.0 9.3391e-05 
12240.0 0.00010605 
12250.0 7.2033e-05 
12260.0 7.2112e-05 
12270.0 8.4334e-05 
12280.0 9.3832e-05 
12290.0 4.2285e-05 
12300.0 8.0485e-05 
12310.0 0.00011837 
12320.0 2.5591e-05 
12330.0 7.6209e-05 
12340.0 0.00013971 
12350.0 3.8119e-05 
12360.0 8.4656e-05 
12370.0 7.1579e-05 
12380.0 9.7795e-05 
12390.0 7.1722e-05 
12400.0 0.00011004 
12410.0 1.6941e-05 
12420.0 8.0403e-05 
12430.0 6.7726e-05 
12440.0 8.0416e-05 
12450.0 5.9234e-05 
12460.0 7.6093e-05 
12470.0 6.8044e-05 
12480.0 5.5096e-05 
12490.0 0.00012706 
12500.0 0.000161   
12510.0 9.254e-05  
12520.0 0.00015652 
12530.0 9.6764e-05 
12540.0 8.464e-05  
12550.0 0.0001307  
12560.0 6.7823e-05 
12570.0 3.3665e-05 
12580.0 8.4473e-05 
12590.0 7.1695e-05 
12600.0 0.00014392 
12610.0 4.2213e-05 
12620.0 8.4805e-05 
12630.0 5.8923e-05 
12640.0 7.9937e-05 
12650.0 9.319e-05  
12660.0 5.0753e-05 
12670.0 0.00010569 
12680.0 6.3251e-05 
12690.0 0.00011377 
12700.0 0.00011404 
12710.0 9.6806e-05 
12720.0 9.6851e-05 
12730.0 7.1761e-05 
12740.0 9.2805e-05 
12750.0 0.00010147 
12760.0 4.6344e-05 
12770.0 0.00011387 
12780.0 6.3283e-05 
12790.0 6.3168e-05 
12800.0 6.7289e-05 
12810.0 8.4581e-05 
12820.0 0.0001049  
12830.0 7.6441e-05 
12840.0 0.00010924 
12850.0 9.7404e-05 
12860.0 6.2747e-05 
12870.0 0.00010143 
12880.0 8.4235e-05 
12890.0 5.8941e-05 
12900.0 7.1806e-05 
12910.0 7.2149e-05 
12920.0 0.00010454 
12930.0 5.5058e-05 
12940.0 6.8001e-05 
12950.0 5.9511e-05 
12960.0 5.3866e-05 
12970.0 8.3759e-05 
12980.0 5.6091e-05 
12990.0 0.00011773 
13000.0 9.5911e-05 
13010.0 0.00010518 
13020.0 6.5773e-05 
13030.0 5.1034e-05 
13040.0 8.829e-05  
13050.0 5.817e-05  
13060.0 6.3759e-05 
13070.0 5.8972e-05 
13080.0 5.7833e-05 
13090.0 1.7484e-05 
13100.0 0.00013142 
13110.0 0.00014781 
13120.0 0.00012087 
13130.0 6.7643e-05 
13140.0 9.2854e-05 
13150.0 7.1769e-05 
13160.0 0.00013456 
13170.0 8.7513e-05 
13180.0 8.0107e-05 
13190.0 8.3907e-05 
13200.0 4.5688e-05 
13210.0 0.00010501 
13220.0 0.00011351 
13230.0 8.7588e-05 
13240.0 9.5898e-05 
13250.0 5.023e-05  
13260.0 0.00013863 
13270.0 4.1742e-05 
13280.0 9.5975e-05 
13290.0 0.00010494 
13300.0 5.7761e-05 
13310.0 0.0001094  
13320.0 0.00011227 
13330.0 5.5109e-05 
13340.0 0.00012537 
13350.0 9.242e-05  
13360.0 7.5016e-05 
13370.0 6.3041e-05 
13380.0 0.00012135 
13390.0 8.8142e-05 
13400.0 7.9929e-05 
13410.0 0.00010437 
13420.0 8.3011e-05 
13430.0 7.1439e-05 
13440.0 8.7964e-05 
13450.0 0.00017972 
13460.0 0.00012845 
13470.0 0.00014097 
13480.0 4.98e-05   
13490.0 0.00010044 
13500.0 7.5394e-05 
13510.0 0.00014915 
13520.0 3.6728e-05 
13530.0 9.6789e-05 
13540.0 6.0216e-05 
13550.0 9.2362e-05 
13560.0 0.00011787 
13570.0 0.00013341 
13580.0 0.00010766 
13590.0 6.7225e-05 
13600.0 3.9502e-05 
13610.0 9.156e-05  
13620.0 7.0867e-05 
13630.0 8.299e-05  
13640.0 0.00012485 
13650.0 9.3937e-05 
13660.0 9.1344e-05 
13670.0 0.00012494 
13680.0 8.2092e-05 
13690.0 7.0377e-05 
13700.0 9.3282e-05 
13710.0 8.7962e-05 
13720.0 0.00012112 
13730.0 7.585e-05  
13740.0 9.4852e-05 
13750.0 8.381e-05  
13760.0 7.6361e-05 
13770.0 7.3957e-05 
13780.0 7.9893e-05 
13790.0 5.7137e-05 
13800.0 0.00011135 
13810.0 0.00011967 
13820.0 8.5189e-05 
13830.0 9.0232e-05 
13840.0 8.0835e-05 
13850.0 8.5257e-05 
13860.0 6.9177e-05 
13870.0 0.00012149 
13880.0 8.6119e-05 
13890.0 6.8692e-05 
13900.0 8.6171e-05 
13910.0 0.00015728 
13920.0 9.5626e-05 
13930.0 8.7528e-05 
13940.0 8.699e-05  
13950.0 0.00017107 
13960.0 6.9819e-05 
13970.0 0.00012414 
13980.0 0.00012343 
13990.0 7.2285e-05 
14000.0 0.00012435 
14010.0 9.8738e-05 
14020.0 5.8778e-05 
14030.0 9.9726e-05 
14040.0 8.492e-05  
14050.0 6.7211e-05 
14060.0 8.7288e-05 
14070.0 9.0692e-05 
14080.0 9.1894e-05 
14090.0 5.846e-05  
14100.0 8.0354e-05 
14110.0 6.7592e-05 
14120.0 8.5461e-05 
14130.0 0.00010298 
14140.0 6.2658e-05 
14150.0 8.1708e-05 
14160.0 4.9909e-05 
14170.0 0.00010723 
14180.0 6.5814e-05 
14190.0 0.00010876 
14200.0 9.3114e-05 
14210.0 4.5189e-05 
14220.0 0.00011089 
14230.0 9.1813e-05 
14240.0 0.00010083 
14250.0 8.3493e-05 
14260.0 7.4763e-05 
14270.0 5.0325e-05 
14280.0 6.2898e-05 
14290.0 4.6153e-05 
14300.0 4.4617e-05 
14310.0 0.00010032 
14320.0 2.9907e-05 
14330.0 4.9851e-05 
14340.0 0.0001129  
14350.0 3.714e-05  
14360.0 8.9851e-05 
14370.0 8.7751e-05 
14380.0 0.00013135 
14390.0 0.00014146 
14400.0 7.427e-05  
14410.0 5.0616e-05 
14420.0 8.0358e-06 
14430.0 5.9012e-05 
14440.0 9.898e-05  
14450.0 7.9249e-05 
14460.0 0.00010757 
14470.0 9.6055e-05 
14480.0 0.00012985 
14490.0 4.964e-05  
14500.0 8.7265e-05 
14510.0 4.1301e-05 
14520.0 0.00012178 
14530.0 7.9587e-05 
14540.0 6.1997e-05 
14550.0 0.00014285 
14560.0 0.00012098 
14570.0 0.00011307 
14580.0 5.4567e-05 
14590.0 7.9106e-05 
14600.0 6.6909e-05 
14610.0 0.00015852 
14620.0 4.993e-05  
14630.0 0.00010479 
14640.0 3.3215e-05 
14650.0 3.3508e-05 
14660.0 7.9756e-05 
14670.0 2.9347e-05 
14680.0 2.8214e-05 
14690.0 4.03e-07   
14700.0 2.6527e-05 
14710.0 0.00010832 
14720.0 5.3489e-05 
14730.0 9.1717e-05 
14740.0 4.6099e-05 
14750.0 7.9564e-05 
14760.0 7.5218e-05 
14770.0 3.7296e-05 
14780.0 7.9168e-05 
14790.0 0.00011244 
14800.0 0.00012974 
14810.0 0.00012473 
14820.0 0.00012471 
14830.0 9.6939e-05 
14840.0 0.00011278 
14850.0 4.198e-05  
14860.0 5.8072e-05 
14870.0 6.7509e-05 
14880.0 0.00010459 
14890.0 0.00012976 
14900.0 6.3002e-05 
14910.0 0.00011704 
14920.0 5.0137e-05 
14930.0 8.3767e-05 
14940.0 5.8996e-05 
14950.0 0.00010026 
14960.0 0.00011707 
14970.0 8.2029e-06 
14980.0 9.6929e-05 
14990.0 0.00013078 
15000.0 0.00013927 
15010.0 6.7513e-05 
15020.0 2.6331e-05 
15030.0 9.6445e-05 
15040.0 0.00011494 
15050.0 0.0001184  
15060.0 7.989e-05  
15070.0 7.9069e-05 
15080.0 9.8575e-05 
15090.0 8.0094e-05 
15100.0 9.2825e-05 
15110.0 8.8044e-05 
15120.0 6.2189e-05 
15130.0 0.0001131  
15140.0 4.6631e-05 
15150.0 0.0001207  
15160.0 3.7761e-05 
15170.0 5.4481e-05 
15180.0 8.3729e-05 
15190.0 0.00012168 
15200.0 6.6907e-05 
15210.0 7.9571e-05 
15220.0 5.4726e-05 
15230.0 5.8756e-05 
15240.0 0.0001081  
15250.0 5.8814e-05 
15260.0 7.6563e-05 
15270.0 9.6396e-05 
15280.0 7.4692e-05 
15290.0 0.00010416 
15300.0 1.4012e-05 
15310.0 6.5861e-05 
15320.0 0.0001079  
15330.0 0.00010578 
15340.0 0.00015098 
15350.0 9.6217e-05 
15360.0 0.00012451 
15370.0 5.5159e-05 
15380.0 6.7248e-05 
15390.0 6.2501e-05 
15400.0 8.8246e-05 
15410.0 6.68e-05   
15420.0 6.2906e-05 
15430.0 4.6153e-05 
15440.0 7.5516e-05 
15450.0 0.00015971 
15460.0 0.00011324 
15470.0 5.475e-05  
15480.0 7.9715e-05 
15490.0 0.00014291 
15500.0 8.7043e-05 
15510.0 8.8122e-05 
15520.0 9.3476e-05 
15530.0 0.00010047 
15540.0 0.00011936 
15550.0 5.4742e-05 
15560.0 6.7982e-05 
15570.0 1.5916e-05 
15580.0 4.9648e-05 
15590.0 0.00012612 
15600.0 0.00011336 
15610.0 5.4848e-05 
15620.0 7.0819e-05 
15630.0 8.4301e-05 
15640.0 0.00011707 
15650.0 0.00010046 
15660.0 4.6479e-05 
15670.0 0.00013471 
15680.0 4.5996e-05 
15690.0 8.4143e-05 
15700.0 8.7598e-05 
15710.0 0.00012254 
15720.0 0.00012605 
15730.0 2.9821e-05 
15740.0 7.0414e-05 
15750.0 0.00013067 
15760.0 7.5508e-05 
15770.0 9.2697e-05 
15780.0 9.6687e-05 
15790.0 0.00011613 
15800.0 6.6416e-05 
15810.0 5.1154e-05 
15820.0 0.00011333 
15830.0 7.9724e-05 
15840.0 9.1683e-05 
15850.0 9.2864e-05 
15860.0 9.6568e-05 
15870.0 7.902e-05  
15880.0 6.3658e-05 
15890.0 9.2463e-05 
15900.0 6.2749e-05 
15910.0 0.00013406 
15920.0 0.00012181 
15930.0 0.00015165 
15940.0 0.00010044 
15950.0 7.1636e-05 
15960.0 0.00012171 
15970.0 3.0547e-05 
15980.0 3.6375e-05 
15990.0 6.73e-05   
16000.0 0.00014034 
16010.0 0.00013723 
16020.0 3.1521e-05 
16030.0 4.6576e-05 
16040.0 0.00016434 
16050.0 5.4203e-05 
16060.0 7.8045e-05 
16070.0 3.0031e-05 
16080.0 5.2725e-06 
16090.0 6.6899e-05 
16100.0 8.3475e-05 
16110.0 9.2926e-05 
16120.0 1.6761e-05 
16130.0 0.00012595 
16140.0 9.2401e-05 
16150.0 9.6768e-05 
16160.0 7.9711e-05 
16170.0 4.195e-05  
16180.0 7.1671e-05 
16190.0 0.00012977 
16200.0 0.00010146 
16210.0 0.00013908 
16220.0 1.9869e-05 
16230.0 0.00012218 
16240.0 0.00010142 
16250.0 9.6842e-05 
16260.0 0.00011129 
16270.0 0.00012237 
16280.0 4.7186e-05 
16290.0 0.00010858 
16300.0 2.5586e-05 
16310.0 0.00011351 
16320.0 1.6648e-05 
16330.0 4.614e-05  
16340.0 0.00011777 
16350.0 9.6891e-05 
16360.0 0.0001006  
16370.0 6.2988e-05 
16380.0 0.0001304  
16390.0 5.0716e-05 
16400.0 0.00010469 
16410.0 0.00010567 
16420.0 4.1008e-05 
16430.0 7.1299e-05 
16440.0 3.5237e-05 
16450.0 4.0766e-05 
16460.0 6.6105e-05 
16470.0 8.8417e-05 
16480.0 0.00011422 
16490.0 9.919e-05  
16500.0 0.00013765 
16510.0 6.3492e-05 
16520.0 0.00010542 
16530.0 6.7142e-05 
16540.0 8.8369e-05 
16550.0 7.102e-05  
16560.0 4.6497e-05 
16570.0 9.6167e-05 
16580.0 7.5559e-05 
16590.0 0.00010949 
16600.0 7.9638e-05 
16610.0 8.4464e-05 
16620.0 9.5389e-05 
16630.0 2.4938e-05 
16640.0 4.6032e-05 
16650.0 9.1982e-05 
16660.0 8.4969e-05 
16670.0 6.6828e-05 
16680.0 0.00010477 
16690.0 6.3145e-05 
16700.0 9.2619e-05 
16710.0 6.6473e-05 
16720.0 6.768e-05  
16730.0 8.8291e-05 
16740.0 0.00012969 
16750.0 8.8657e-05 
16760.0 9.2102e-05 
16770.0 9.7104e-05 
16780.0 8.822e-05  
16790.0 0.00013022 
16800.0 9.28e-05   
16810.0 7.2063e-05 
16820.0 5.4136e-05 
16830.0 0.00011297 
16840.0 5.6084e-05 
16850.0 3.2418e-05 
16860.0 8.4721e-05 
16870.0 9.2391e-05 
16880.0 4.4508e-05 
16890.0 3.8175e-05 
16900.0 6.8441e-05 
16910.0 5.0485e-05 
16920.0 0.00011206 
16930.0 6.8068e-05 
16940.0 5.9075e-05 
16950.0 0.00012621 
16960.0 8.3881e-05 
16970.0 5.081e-05  
16980.0 0.0001684  
16990.0 8.8062e-05 
17000.0 0.00011352 
17010.0 9.261e-05  
17020.0 5.8947e-05 
17030.0 0.0001178  
17040.0 0.00011811 
17050.0 0.00010926 
17060.0 6.7295e-05 
17070.0 8.0094e-05 
17080.0 6.6701e-05 
17090.0 5.846e-05  
17100.0 6.4171e-05 
17110.0 7.5298e-05 
17120.0 0.00010384 
17130.0 7.1969e-05 
17140.0 2.07e-07   
17150.0 6.3185e-05 
17160.0 6.2637e-05 
17170.0 0.00015573 
17180.0 5.0141e-05 
17190.0 0.00010054 
17200.0 0.00014302 
17210.0 6.3172e-05 
17220.0 8.3708e-05 
17230.0 7.5707e-05 
17240.0 9.6854e-05 
17250.0 0.00015116 
17260.0 0.00010493 
17270.0 7.9323e-05 
17280.0 6.8617e-05 
17290.0 0.00011283 
17300.0 0.00014946 
17310.0 0.00010096 
17320.0 0.00012964 
17330.0 8.8495e-05 
17340.0 7.1196e-05 
17350.0 0.00010017 
17360.0 9.1565e-05 
17370.0 5.076e-05  
17380.0 6.7076e-05 
17390.0 7.9864e-05 
17400.0 8.3364e-05 
17410.0 3.4065e-05 
17420.0 7.9689e-05 
17430.0 0.00012194 
17440.0 0.00013405 
17450.0 2.5273e-05 
17460.0 6.69e-05   
17470.0 7.1684e-05 
17480.0 5.879e-05  
17490.0 0.00011768 
17500.0 8.3016e-05 
17510.0 0.00013796 
17520.0 3.5018e-05 
17530.0 9.1908e-05 
17540.0 0.00014995 
17550.0 1.2996e-05 
17560.0 5.6737e-05 
17570.0 7.2503e-05 
17580.0 6.2079e-05 
17590.0 0.00011825 
17600.0 0.00012919 
17610.0 9.6749e-05 
17620.0 7.54e-05   
17630.0 8.3707e-05 
17640.0 4.1148e-06 
17650.0 0.00015512 
17660.0 8.7806e-05 
17670.0 7.5928e-05 
17680.0 9.619e-05  
17690.0 5.0229e-05 
17700.0 5.9265e-05 
17710.0 0.0001004  
17720.0 6.6302e-05 
17730.0 0.00010448 
17740.0 8.0548e-05 
17750.0 0.00011359 
17760.0 0.00011816 
17770.0 0.00010946 
17780.0 0.00010228 
17790.0 9.4868e-05 
17800.0 9.518e-05  
17810.0 6.3253e-05 
17820.0 7.094e-05  
17830.0 0.00010008 
17840.0 0.00010065 
17850.0 4.5616e-05 
17860.0 5.4647e-05 
17870.0 0.00013797 
17880.0 7.1267e-05 
17890.0 0.00010467 
17900.0 8.7688e-05 
17910.0 0.00011687 
17920.0 0.00010513 
17930.0 8.3932e-05 
17940.0 7.0059e-05 
17950.0 0.0001087  
17960.0 0.00013024 
17970.0 8.7611e-05 
17980.0 0.00012019 
17990.0 3.7938e-05 
18000.0 0.00011268 
18010.0 3.3429e-05 
18020.0 6.2972e-05 
18030.0 0.00010903 
18040.0 0.00010361 
18050.0 0.00010415 
18060.0 0.00011749 
18070.0 8.847e-05  
18080.0 5.8155e-05 
18090.0 5.3784e-05 
18100.0 4.2556e-05 
18110.0 7.9264e-05 
18120.0 0.00010736 
18130.0 6.3616e-05 
18140.0 8.6012e-05 
18150.0 0.00010069 
18160.0 8.4575e-05 
18170.0 5.7826e-05 
18180.0 0.00012236 
18190.0 2.059e-05  
18200.0 0.00012425 
18210.0 3.8283e-05 
18220.0 0.00013866 
18230.0 5.7317e-05 
18240.0 3.7885e-05 
18250.0 0.0001264  
18260.0 8.393e-05  
18270.0 2.9512e-05 
18280.0 7.508e-05  
18290.0 8.2223e-05 
18300.0 7.5495e-05 
18310.0 0.00012591 
18320.0 7.6149e-05 
18330.0 6.5435e-05 
18340.0 8.18e-05   
18350.0 0.00011787 
18360.0 0.00014113 
18370.0 5.9038e-05 
18380.0 0.00010103 
18390.0 7.7923e-05 
18400.0 5.4121e-05 
18410.0 0.00010027 
18420.0 0.00010332 
18430.0 0.00012773 
18440.0 4.9194e-05 
18450.0 8.9549e-05 
18460.0 5.1924e-05 
18470.0 8.72e-05   
18480.0 7.299e-05  
18490.0 0.00010298 
18500.0 0.0001213  
18510.0 1.7182e-05 
18520.0 7.3097e-05 
18530.0 9.5364e-05 
18540.0 2.0648e-05 
18550.0 5.0743e-05 
18560.0 0.00013314 
18570.0 7.8177e-05 
18580.0 5.4464e-05 
18590.0 0.00011841 
18600.0 4.7598e-05 
18610.0 8.0112e-05 
18620.0 8.423e-05  
18630.0 9.1344e-05 
18640.0 0.00010748 
18650.0 6.67e-05   
18660.0 4.3674e-05 
18670.0 4.957e-05  
18680.0 7.3521e-05 
18690.0 0.00010764 
18700.0 7.2379e-05 
18710.0 4.9527e-05 
18720.0 0.00013543 
18730.0 3.8215e-05 
18740.0 6.2664e-05 
18750.0 5.8823e-05 
18760.0 9.6704e-05 
18770.0 0.00010868 
18780.0 7.6818e-05 
18790.0 8.3731e-05 
18800.0 6.1054e-05 
18810.0 0.00012161 
18820.0 5.7758e-05 
18830.0 5.3211e-05 
18840.0 0.00012502 
18850.0 8.3557e-05 
18860.0 8.012e-05  
18870.0 9.5053e-05 
18880.0 0.00010215 
18890.0 6.2541e-05 
18900.0 9.859e-05  
18910.0 9.0181e-05 
18920.0 8.1345e-05 
18930.0 3.6724e-05 
18940.0 0.00012187 
18950.0 9.1001e-05 
18960.0 5.7115e-05 
18970.0 0.00013399 
18980.0 0.00010838 
18990.0 5.4182e-05 
19000.0 8.8628e-05 
19010.0 5.0697e-05 
19020.0 0.00016765 
19030.0 7.4406e-05 
19040.0 8.1562e-05 
19050.0 0.00010279 
19060.0 0.00011171 
19070.0 7.9984e-05 
19080.0 0.00010074 
19090.0 0.00010775 
19100.0 0.00011955 
19110.0 6.3114e-05 
19120.0 8.2313e-05 
19130.0 0.00011263 
19140.0 0.00012892 
19150.0 0.00010587 
19160.0 0.0001131  
19170.0 8.7136e-05 
19180.0 5.1758e-05 
19190.0 0.00015883 
19200.0 8.8512e-05 
19210.0 0.0001465  
19220.0 8.5741e-05 
19230.0 8.6882e-05 
19240.0 9.3651e-05 
19250.0 9.1911e-05 
19260.0 8.2922e-05 
19270.0 8.1968e-05 
19280.0 0.00010007 
19290.0 0.00011585 
19300.0 7.0331e-05 
19310.0 0.00014219 
19320.0 5.3521e-05 
19330.0 0.00013271 
19340.0 0.0001282  
19350.0 9.1128e-05 
19360.0 8.2701e-05 
19370.0 0.00011578 
19380.0 0.00013276 
19390.0 0.00014553 
19400.0 0.00015851 
19410.0 0.00012858 
19420.0 8.6984e-05 
19430.0 0.00011122 
19440.0 0.00019065 
19450.0 0.00016606 
19460.0 0.00014089 
19470.0 0.0001291  
19480.0 0.00015329 
19490.0 0.00021579 
19500.0 0.0001736  
19510.0 0.00020287 
19520.0 0.00016837 
19530.0 0.00018177 
19540.0 0.00017961 
19550.0 0.00022002 
19560.0 0.00018818 
19570.0 0.00022825 
19580.0 0.00024498 
19590.0 0.00023245 
19600.0 0.00022704 
19610.0 0.00034332 
19620.0 0.00030195 
19630.0 0.00032847 
19640.0 0.0002959  
19650.0 0.00038143 
19660.0 0.00041282 
19670.0 0.00042691 
19680.0 0.00042124 
19690.0 0.00046845 
19700.0 0.00049804 
19710.0 0.00056431 
19720.0 0.00059048 
19730.0 0.00061863 
19740.0 0.00064648 
19750.0 0.00073465 
19760.0 0.0007113  
19770.0 0.00081545 
19780.0 0.00089258 
19790.0 0.00098614 
19800.0 0.0010289  
19810.0 0.0010768  
19820.0 0.0011911  
19830.0 0.0013253  
19840.0 0.0014312  
19850.0 0.001581   
19860.0 0.0016501  
19870.0 0.0017729  
19880.0 0.0019772  
19890.0 0.0020791  
19900.0 0.0022476  
19910.0 0.0024089  
19920.0 0.0025709  
19930.0 0.0027146  
19940.0 0.0029992  
19950.0 0.0031984  
19960.0 0.0033489  
19970.0 0.0036963  
19980.0 0.0039238  
19990.0 0.0042417  
20000.0 0.0046086  
20010.0 0.0049608  
20020.0 0.0052891  
20030.0 0.0056818  
20040.0 0.0060923  
20050.0 0.0065327  
20060.0 0.0071606  
20070.0 0.0076542  
20080.0 0.0082962  
20090.0 0.0089486  
20100.0 0.0096719  
20110.0 0.010433   
20120.0 0.011358   
20130.0 0.012253   
20140.0 0.013303   
20150.0 0.014358   
20160.0 0.015608   
20170.0 0.016978   
20180.0 0.018513   
20190.0 0.020164   
20200.0 0.022013   
20210.0 0.024001   
20220.0 0.026207   
20230.0 0.028725   
20240.0 0.031412   
20250.0 0.034483   
20260.0 0.037951   
20270.0 0.041555   
20280.0 0.045664   
20290.0 0.050243   
20300.0 0.055217   
20310.0 0.060898   
20320.0 0.066982   
20330.0 0.073709   
20340.0 0.081231   
20350.0 0.089427   
20360.0 0.098487   
20370.0 0.10837    
20380.0 0.11929    
20390.0 0.131      
20400.0 0.14401    
20410.0 0.15765    
20420.0 0.1729     
20430.0 0.18901    
20440.0 0.20687    
20450.0 0.22549    
20460.0 0.24492    
20470.0 0.26587    
20480.0 0.28747    
20490.0 0.31058    
20500.0 0.33503    
20510.0 0.35918    
20520.0 0.38452    
20530.0 0.41061    
20540.0 0.43692    
20550.0 0.46329    
20560.0 0.49055    
20570.0 0.51713    
20580.0 0.54381    
20590.0 0.56995    
20600.0 0.59549    
20610.0 0.62118    
20620.0 0.64527    
20630.0 0.66971    
20640.0 0.69274    
20650.0 0.71431    
20660.0 0.73544    
20670.0 0.75539    
20680.0 0.77378    
20690.0 0.79207    
20700.0 0.80822    
20710.0 0.82326    
20720.0 0.8374     
20730.0 0.84985    
20740.0 0.86129    
20750.0 0.87206    
20760.0 0.88107    
20770.0 0.88897    
20780.0 0.89613    
20790.0 0.90194    
20800.0 0.90696    
20810.0 0.91117    
20820.0 0.91464    
20830.0 0.91713    
20840.0 0.91899    
20850.0 0.9205     
20860.0 0.92155    
20870.0 0.92201    
20880.0 0.92232    
20890.0 0.92234    
20900.0 0.92201    
20910.0 0.92169    
20920.0 0.92127    
20930.0 0.92082    
20940.0 0.92021    
20950.0 0.91997    
20960.0 0.91958    
20970.0 0.91902    
20980.0 0.91894    
20990.0 0.91895    
21000.0 0.91895    
21010.0 0.91931    
21020.0 0.91988    
21030.0 0.92037    
21040.0 0.92091    
21050.0 0.92172    
21060.0 0.92263    
21070.0 0.92369    
21080.0 0.92454    
21090.0 0.926      
21100.0 0.92744    
21110.0 0.92858    
21120.0 0.92991    
21130.0 0.93166    
21140.0 0.93273    
21150.0 0.93394    
21160.0 0.93517    
21170.0 0.93632    
21180.0 0.93747    
21190.0 0.93866    
21200.0 0.9397     
21210.0 0.94065    
21220.0 0.94083    
21230.0 0.94148    
21240.0 0.94211    
21250.0 0.94179    
21260.0 0.9422     
21270.0 0.94197    
21280.0 0.94138    
21290.0 0.94182    
21300.0 0.94127    
21310.0 0.94053    
21320.0 0.93965    
21330.0 0.93851    
21340.0 0.93725    
21350.0 0.93619    
21360.0 0.93491    
21370.0 0.93335    
21380.0 0.93205    
21390.0 0.93031    
21400.0 0.92847    
21410.0 0.92675    
21420.0 0.92477    
21430.0 0.9227     
21440.0 0.92105    
21450.0 0.91937    
21460.0 0.91758    
21470.0 0.91606    
21480.0 0.91472    
21490.0 0.91293    
21500.0 0.91157    
21510.0 0.91011    
21520.0 0.90889    
21530.0 0.90757    
21540.0 0.90659    
21550.0 0.90612    
21560.0 0.90514    
21570.0 0.9044     
21580.0 0.90406    
21590.0 0.90391    
21600.0 0.90336    
21610.0 0.90317    
21620.0 0.90334    
21630.0 0.9037     
21640.0 0.90419    
21650.0 0.90484    
21660.0 0.90554    
21670.0 0.90624    
21680.0 0.90708    
21690.0 0.90794    
21700.0 0.90898    
21710.0 0.90992    
21720.0 0.91136    
21730.0 0.91295    
21740.0 0.91421    
21750.0 0.91594    
21760.0 0.91734    
21770.0 0.9188     
21780.0 0.92031    
21790.0 0.92181    
21800.0 0.92354    
21810.0 0.92513    
21820.0 0.92702    
21830.0 0.9289     
21840.0 0.93061    
21850.0 0.93222    
21860.0 0.93384    
21870.0 0.9353     
21880.0 0.93655    
21890.0 0.93788    
21900.0 0.93955    
21910.0 0.94063    
21920.0 0.94187    
21930.0 0.94299    
21940.0 0.94376    
21950.0 0.94417    
21960.0 0.94487    
21970.0 0.94517    
21980.0 0.9453     
21990.0 0.94556    
22000.0 0.94568    
22010.0 0.94603    
22020.0 0.94592    
22030.0 0.94559    
22040.0 0.94555    
22050.0 0.9451     
22060.0 0.94473    
22070.0 0.94445    
22080.0 0.94441    
22090.0 0.94417    
22100.0 0.94414    
22110.0 0.9441     
22120.0 0.94402    
22130.0 0.94362    
22140.0 0.94321    
22150.0 0.94322    
22160.0 0.94289    
22170.0 0.94283    
22180.0 0.94308    
22190.0 0.94299    
22200.0 0.94263    
22210.0 0.94288    
22220.0 0.94284    
22230.0 0.94214    
22240.0 0.9424     
22250.0 0.94256    
22260.0 0.94265    
22270.0 0.94295    
22280.0 0.94309    
22290.0 0.94344    
22300.0 0.94332    
22310.0 0.94324    
22320.0 0.94336    
22330.0 0.94334    
22340.0 0.94328    
22350.0 0.9434     
22360.0 0.94389    
22370.0 0.94429    
22380.0 0.94417    
22390.0 0.94434    
22400.0 0.9446     
22410.0 0.94433    
22420.0 0.94446    
22430.0 0.94445    
22440.0 0.94494    
22450.0 0.94534    
22460.0 0.94526    
22470.0 0.94558    
22480.0 0.94563    
22490.0 0.94585    
22500.0 0.94574    
22510.0 0.94564    
22520.0 0.94583    
22530.0 0.94649    
22540.0 0.94661    
22550.0 0.94664    
22560.0 0.94711    
22570.0 0.94684    
22580.0 0.94675    
22590.0 0.94653    
22600.0 0.94665    
22610.0 0.94693    
22620.0 0.94741    
22630.0 0.94694    
22640.0 0.94659    
22650.0 0.94729    
22660.0 0.94695    
22670.0 0.94678    
22680.0 0.9469     
22690.0 0.94678    
22700.0 0.94767    
22710.0 0.94722    
22720.0 0.94693    
22730.0 0.94761    
22740.0 0.94749    
22750.0 0.94758    
22760.0 0.94835    
22770.0 0.94769    
22780.0 0.94836    
22790.0 0.94911    
22800.0 0.94918    
22810.0 0.94936    
22820.0 0.95039    
22830.0 0.95074    
22840.0 0.95021    
22850.0 0.95044    
22860.0 0.95173    
22870.0 0.9525     
22880.0 0.95259    
22890.0 0.95285    
22900.0 0.95408    
22910.0 0.95462    
22920.0 0.95428    
22930.0 0.95487    
22940.0 0.95444    
22950.0 0.95533    
22960.0 0.95544    
22970.0 0.95547    
22980.0 0.95527    
22990.0 0.95576    
23000.0 0.95567    
23010.0 0.95459    
23020.0 0.9539     
23030.0 0.95478    
23040.0 0.95366    
23050.0 0.95183    
23060.0 0.95183    
23070.0 0.95123    
23080.0 0.94985    
23090.0 0.94945    
23100.0 0.9486     
23110.0 0.94672    
23120.0 0.94563    
23130.0 0.94433    
23140.0 0.94304    
23150.0 0.94185    
23160.0 0.94047    
23170.0 0.93934    
23180.0 0.9378     
23190.0 0.93612    
23200.0 0.93552    
23210.0 0.93425    
23220.0 0.9327     
23230.0 0.93159    
23240.0 0.93085    
23250.0 0.93015    
23260.0 0.9292     
23270.0 0.92907    
23280.0 0.92867    
23290.0 0.92809    
23300.0 0.92802    
23310.0 0.92836    
23320.0 0.92868    
23330.0 0.92877    
23340.0 0.92967    
23350.0 0.93079    
23360.0 0.93161    
23370.0 0.93256    
23380.0 0.93433    
23390.0 0.93609    
23400.0 0.93724    
23410.0 0.93929    
23420.0 0.94112    
23430.0 0.94267    
23440.0 0.94472    
23450.0 0.94715    
23460.0 0.94889    
23470.0 0.94959    
23480.0 0.95173    
23490.0 0.95274    
23500.0 0.95275    
23510.0 0.95239    
23520.0 0.95125    
23530.0 0.94878    
23540.0 0.94497    
23550.0 0.94004    
23560.0 0.93324    
23570.0 0.92439    
23580.0 0.91301    
23590.0 0.90023    
23600.0 0.88394    
23610.0 0.86563    
23620.0 0.84431    
23630.0 0.82025    
23640.0 0.79407    
23650.0 0.765      
23660.0 0.73302    
23670.0 0.69911    
23680.0 0.66406    
23690.0 0.62747    
23700.0 0.59039    
23710.0 0.55171    
23720.0 0.51343    
23730.0 0.47545    
23740.0 0.43788    
23750.0 0.40317    
23760.0 0.36916    
23770.0 0.33607    
23780.0 0.30587    
23790.0 0.27643    
23800.0 0.2498     
23810.0 0.22594    
23820.0 0.20315    
23830.0 0.18277    
23840.0 0.16447    
23850.0 0.14708    
23860.0 0.13177    
23870.0 0.11818    
23880.0 0.10597    
23890.0 0.094698   
23900.0 0.084837   
23910.0 0.075893   
23920.0 0.067885   
23930.0 0.060762   
23940.0 0.054504   
23950.0 0.048864   
23960.0 0.043779   
23970.0 0.039292   
23980.0 0.0352     
23990.0 0.031661   
24000.0 0.028578   
24010.0 0.025655   
24020.0 0.023198   
24030.0 0.020943   
24040.0 0.018834   
24050.0 0.017077   
24060.0 0.015507   
24070.0 0.014022   
24080.0 0.012709   
24090.0 0.011606   
24100.0 0.010477   
24110.0 0.0095949  
24120.0 0.0087666  
24130.0 0.0079832  
24140.0 0.0073226  
24150.0 0.0067442  
24160.0 0.0061574  
24170.0 0.0056077  
24180.0 0.0051737  
24190.0 0.0047569  
24200.0 0.004351   
24210.0 0.0040252  
24220.0 0.0037417  
24230.0 0.0034548  
24240.0 0.0031771  
24250.0 0.0028952  
24260.0 0.0027525  
24270.0 0.0025089  
24280.0 0.0024309  
24290.0 0.0021296  
24300.0 0.0019994  
24310.0 0.0019031  
24320.0 0.0017944  
24330.0 0.0016543  
24340.0 0.0016026  
24350.0 0.0014551  
24360.0 0.0013798  
24370.0 0.0012667  
24380.0 0.0012285  
24390.0 0.0011761  
24400.0 0.00099072 
24410.0 0.00099326 
24420.0 0.00092752 
24430.0 0.00087428 
24440.0 0.00080676 
24450.0 0.00073523 
24460.0 0.00077077 
24470.0 0.00065503 
24480.0 0.00071351 
24490.0 0.00064719 
24500.0 0.00061659 
24510.0 0.0005928  
24520.0 0.00051642 
24530.0 0.00044323 
24540.0 0.00051548 
24550.0 0.00048816 
24560.0 0.00045785 
24570.0 0.00041897 
24580.0 0.00038243 
24590.0 0.00036568 
24600.0 0.0003609  
24610.0 0.00039453 
24620.0 0.00035509 
24630.0 0.00039076 
24640.0 0.00035209 
24650.0 0.00032973 
24660.0 0.00029596 
24670.0 0.00032477 
24680.0 0.00022491 
24690.0 0.00029263 
24700.0 0.00023964 
24710.0 0.00021381 
24720.0 0.00027574 
24730.0 0.00031496 
24740.0 0.0001929  
24750.0 0.00022192 
24760.0 0.00023392 
24770.0 0.0002917  
24780.0 0.00015546 
24790.0 0.00019239 
24800.0 0.00019242 
24810.0 0.00022513 
24820.0 0.00017657 
24830.0 0.00020137 
24840.0 0.00022567 
24850.0 0.00016739 
24860.0 0.00020451 
24870.0 0.00017309 
24880.0 0.00017322 
24890.0 0.00015191 
24900.0 0.00016827 
24910.0 0.00014773 
24920.0 0.00013937 
24930.0 0.00017356 
24940.0 0.00012209 
24950.0 0.00016078 
24960.0 0.00014847 
24970.0 0.00013179 
24980.0 0.00010912 
24990.0 0.00011985 
25000.0 0.00014819 
25010.0 0.00021703 
25020.0 7.8126e-05 
25030.0 0.00016061 
25040.0 8.1707e-05 
25050.0 0.00012332 
25060.0 0.00011588 
25070.0 0.00015644 
25080.0 0.00013152 
25090.0 6.611e-05  
25100.0 9.7998e-05 
25110.0 9.9215e-05 
25120.0 6.5733e-05 
25130.0 7.7844e-05 
25140.0 0.00017915 
25150.0 5.3762e-05 
25160.0 0.00014826 
25170.0 0.00010831 
25180.0 0.00010482 
25190.0 9.9066e-05 
25200.0 0.00013242 
25210.0 6.5422e-05 
25220.0 7.8016e-05 
25230.0 0.0001108  
25240.0 0.00011931 
25250.0 7.7884e-05 
25260.0 0.00013074 
25270.0 0.00014053 
25280.0 3.2024e-05 
25290.0 7.4148e-05 
25300.0 7.2343e-05 
25310.0 7.7578e-05 
25320.0 3.8313e-05 
25330.0 0.00011891 
25340.0 5.5002e-05 
25350.0 9.5818e-05 
25360.0 0.00010855 
25370.0 0.0001001  
25380.0 9.7114e-05 
25390.0 0.00012367 
25400.0 7.3764e-05 
25410.0 0.00011416 
25420.0 0.00012834 
25430.0 9.0075e-05 
25440.0 9.9592e-05 
25450.0 8.9911e-05 
25460.0 0.00010576 
25470.0 4.542e-05  
25480.0 0.00010785 
25490.0 7.42e-05   
25500.0 0.00014426 
25510.0 0.00013267 
25520.0 9.3e-05    
25530.0 6.7123e-05 
25540.0 0.00010245 
25550.0 0.00013203 
25560.0 7.6161e-05 
25570.0 6.8597e-05 
25580.0 4.262e-05  
25590.0 5.6916e-05 
25600.0 8.2223e-05 
25610.0 6.5664e-05 
25620.0 0.00010308 
25630.0 9.7145e-05 
25640.0 0.00011045 
25650.0 7.0852e-05 
25660.0 6.3077e-05 
25670.0 0.00012379 
25680.0 6.6005e-05 
25690.0 0.00012371 
25700.0 7.7179e-05 
25710.0 4.1422e-05 
25720.0 0.00010905 
25730.0 3.3634e-05 
25740.0 0.00016032 
25750.0 7.0368e-05 
25760.0 7.3777e-05 
25770.0 6.2593e-05 
25780.0 0.00010066 
25790.0 0.00010669 
25800.0 0.00014433 
25810.0 9.3783e-05 
25820.0 3.6159e-05 
25830.0 6.6185e-05 
25840.0 7.8613e-05 
25850.0 7.0562e-05 
25860.0 0.00010674 
25870.0 8.6815e-05 
25880.0 9.8546e-05 
25890.0 6.9271e-05 
25900.0 0.00014285 
25910.0 8.9127e-05 
25920.0 9.7022e-05 
25930.0 4.4373e-05 
25940.0 8.967e-05  
25950.0 8.638e-05  
25960.0 0.00011334 
25970.0 5.8319e-05 
25980.0 0.00013404 
25990.0 5.7471e-05 
26000.0 6.2488e-05 
26010.0 6.5551e-05 
26020.0 0.00010758 
26030.0 5.0081e-05 
26040.0 8.5177e-05 
26050.0 5.0047e-05 
26060.0 2.7189e-05 
26070.0 0.00014221 
26080.0 4.2108e-05 
26090.0 9.6604e-05 
26100.0 9.3893e-05 
26110.0 0.00012466 
26120.0 7.6968e-05 
26130.0 7.7533e-05 
26140.0 0.00013831 
26150.0 8.4412e-05 
26160.0 3.7367e-05 
26170.0 0.00012123 
26180.0 0.00012089 
26190.0 1.687e-05  
26200.0 1.7102e-05 
26210.0 6.769e-05  
26220.0 0.00010139 
26230.0 6.9717e-05 
26240.0 6.5945e-05 
26250.0 9.7985e-05 
26260.0 9.0525e-05 
26270.0 5.0302e-05 
26280.0 6.8595e-05 
26290.0 5.6939e-05 
26300.0 7.109e-05  
26310.0 5.8877e-05 
26320.0 0.00012039 
26330.0 0.00010831 
26340.0 2.0604e-05 
26350.0 8.0941e-05 
26360.0 9.3717e-05 
26370.0 6.7422e-05 
26380.0 0.00011298 
26390.0 9.1904e-05 
26400.0 7.7092e-05 
26410.0 6.8367e-05 
26420.0 5.0253e-05 
26430.0 4.0302e-05 
26440.0 0.00011015 
26450.0 8.2862e-05 
26460.0 9.4573e-05 
26470.0 7.8853e-05 
26480.0 9.4453e-05 
26490.0 0.00011941 
26500.0 8.4146e-05 
26510.0 0.00010733 
26520.0 9.7949e-05 
26530.0 0.00015164 
26540.0 8.99e-05   
26550.0 0.0001189  
26560.0 6.8477e-05 
26570.0 6.5644e-05 
26580.0 7.7818e-05 
26590.0 4.8647e-05 
26600.0 9.4617e-05 
26610.0 6.792e-05  
26620.0 7.8034e-05 
26630.0 8.4183e-05 
26640.0 7.9658e-05 
26650.0 0.00010107 
26660.0 4.0528e-05 
26670.0 9.7895e-05 
26680.0 4.9633e-05 
26690.0 8.0999e-05 
26700.0 5.6905e-05 
26710.0 8.235e-05  
26720.0 6.6897e-05 
26730.0 7.8435e-05 
26740.0 4.0085e-05 
26750.0 7.3722e-05 
26760.0 8.0825e-05 
26770.0 7.8055e-05 
26780.0 0.00010395 
26790.0 4.9969e-05 
26800.0 6.078e-05  
26810.0 8.6799e-05 
26820.0 0.00010104 
26830.0 7.5066e-05 
26840.0 6.2919e-05 
26850.0 0.00011294 
26860.0 0.00012576 
26870.0 7.0016e-05 
26880.0 4.2117e-05 
26890.0 7.3598e-05 
26900.0 0.00011937 
26910.0 0.0001185  
26920.0 7.6937e-05 
26930.0 8.2964e-05 
26940.0 7.2804e-05 
26950.0 6.6044e-05 
26960.0 0.00011236 
26970.0 7.0914e-05 
26980.0 9.3486e-05 
26990.0 6.1916e-05 
27000.0 0.00011129 
27010.0 4.1038e-05 
27020.0 7.3764e-05 
27030.0 9.1252e-05 
27040.0 9.2267e-05 
27050.0 8.2651e-05 
27060.0 0.00012983 
27070.0 0.00012649 
27080.0 9.0881e-05 
27090.0 5.6786e-05 
27100.0 5.7601e-05 
27110.0 0.00012503 
27120.0 1.1179e-05 
27130.0 6.5975e-05 
27140.0 5.3509e-05 
27150.0 9.0734e-05 
27160.0 0.00012426 
27170.0 5.3388e-05 
27180.0 7.9042e-05 
27190.0 5.7646e-05 
27200.0 7.9095e-05 
27210.0 9.5024e-05 
27220.0 0.0001551  
27230.0 0.00011515 
27240.0 7.4152e-05 
27250.0 0.00015096 
27260.0 4.7563e-05 
27270.0 0.00011382 
27280.0 8.5049e-05 
27290.0 4.5518e-05 
27300.0 0.00013946 
27310.0 0.00012365 
27320.0 0.00012102 
27330.0 8.1297e-05 
27340.0 7.4108e-05 
27350.0 0.00011029 
27360.0 5.9149e-05 
27370.0 7.3643e-05 
27380.0 4.0255e-05 
27390.0 9.7789e-05 
27400.0 0.00010087 
27410.0 7.3703e-05 
27420.0 6.8123e-05 
27430.0 0.00010751 
27440.0 4.208e-05  
27450.0 0.00012453 
27460.0 1.6716e-05 
27470.0 0.00013229 
27480.0 2.7684e-05 
27490.0 0.00011162 
27500.0 7.4258e-05 
27510.0 6.0373e-05 
27520.0 0.0001181  
27530.0 0.00010952 
27540.0 0.00010826 
27550.0 3.7057e-06 
27560.0 9.5089e-05 
27570.0 8.2984e-05 
27580.0 8.8777e-05 
27590.0 1.2579e-05 
27600.0 7.0038e-05 
27610.0 0.00011099 
27620.0 0.00010784 
27630.0 0.0001041  
27640.0 4.1163e-05 
27650.0 0.00012506 
27660.0 7.4859e-05 
27670.0 7.4378e-05 
27680.0 0.00010383 
27690.0 0.00011159 
27700.0 6.9472e-05 
27710.0 0.00010243 
27720.0 4.7051e-05 
27730.0 0.0001034  
27740.0 8.5464e-05 
27750.0 6.1972e-05 
27760.0 7.8964e-05 
27770.0 9.0167e-05 
27780.0 8.1949e-05 
27790.0 0.00012007 
27800.0 9.4413e-05 
27810.0 4.0973e-05 
27820.0 0.00013301 
27830.0 7.4314e-05 
27840.0 4.0594e-05 
27850.0 9.8527e-05 
27860.0 8.8549e-05 
27870.0 4.9975e-05 
27880.0 0.00012766 
27890.0 0.00011773 
27900.0 8.7064e-05 
27910.0 0.00013687 
27920.0 7.9072e-05 
27930.0 6.9798e-05 
27940.0 2.453e-05  
27950.0 8.6333e-05 
27960.0 0.00011283 
27970.0 9.0273e-05 
27980.0 7.4222e-05 
27990.0 7.4852e-05 
28000.0 9.9793e-05 
28010.0 0.00010251 
28020.0 6.5482e-05 
28030.0 0.00010394 
28040.0 4.6026e-05 
28050.0 8.8001e-05 
28060.0 4.1437e-05 
28070.0 0.00017125 
28080.0 5.4526e-05 
28090.0 0.0001134  
28100.0 0.0001147  
28110.0 0.00012684 
28120.0 0.00010025 
28130.0 0.00014613 
28140.0 8.4142e-05 
28150.0 5.8706e-05 
28160.0 9.1037e-05 
28170.0 0.00010983 
28180.0 5.5385e-05 
28190.0 6.6276e-05 
28200.0 0.00013814 
28210.0 0.00010146 
28220.0 9.9936e-05 
28230.0 8.8784e-05 
28240.0 0.00010893 
28250.0 0.00014378 
28260.0 7.4552e-05 
28270.0 6.836e-05  
28280.0 0.00012271 
28290.0 4.6816e-05 
28300.0 0.00011424 
28310.0 0.0001283  
28320.0 8.5952e-05 
28330.0 0.00012376 
28340.0 0.00010261 
28350.0 0.00014303 
28360.0 8.4095e-05 
28370.0 6.6003e-05 
28380.0 4.325e-05  
28390.0 0.00017758 
28400.0 8.2224e-05 
28410.0 8.3719e-05 
28420.0 8.3018e-05 
28430.0 7.0755e-05 
28440.0 0.00013926 
28450.0 5.0207e-05 
28460.0 4.6361e-05 
28470.0 0.00011664 
28480.0 0.00013692 
28490.0 0.00012378 
28500.0 0.00012086 
28510.0 9.2966e-05 
28520.0 5.4293e-05 
28530.0 0.00012513 
28540.0 0.00011137 
28550.0 0.00012298 
28560.0 4.1612e-05 
28570.0 0.00013633 
28580.0 0.00016412 
28590.0 2.7811e-05 
28600.0 0.0001088  
28610.0 8.7948e-05 
28620.0 0.00012167 
28630.0 8.4035e-05 
28640.0 0.00011368 
28650.0 0.00010317 
28660.0 9.8101e-05 
28670.0 7.622e-05  
28680.0 0.00011203 
28690.0 5.395e-05  
28700.0 0.0001081  
28710.0 0.00011544 
28720.0 0.00010447 
28730.0 5.005e-05  
28740.0 0.00021194 
28750.0 9.4584e-05 
28760.0 0.00012068 
28770.0 0.00017369 
28780.0 0.00014902 
28790.0 0.00015699 
28800.0 0.00019746 
28810.0 0.00014697 
28820.0 0.00016149 
28830.0 0.00014293 
28840.0 0.0001031  
28850.0 0.00021461 
28860.0 0.00013345 
28870.0 0.00015553 
28880.0 0.00019944 
28890.0 0.00011604 
28900.0 0.00013846 
28910.0 0.00016156 
28920.0 0.00023781 
28930.0 0.00011975 
28940.0 9.885e-05  
28950.0 0.00019083 
28960.0 0.00014664 
28970.0 0.0001711  
28980.0 0.00011795 
28990.0 0.00018222 
29000.0 0.00019092 
29010.0 0.00019307 
29020.0 0.00024253 
29030.0 0.00012305 
29040.0 0.00018041 
29050.0 0.00022215 
29060.0 4.3711e-05 
29070.0 0.00023434 
29080.0 0.00018585 
29090.0 0.00012765 
29100.0 0.00017092 
29110.0 -1.5879e-05
29120.0 0.00014761 
29130.0 0.00019166 
29140.0 0.00026178 
29150.0 0.00036865 
29160.0 0.00020405 
29170.0 0.00010791 
29180.0 9.881e-05  
29190.0 0.0001537  
29200.0 5.5163e-05 
29210.0 0.00022745 
29220.0 8.3778e-05 
29230.0 0.00018443 
29240.0 0.00024076 
29250.0 0.0001769  
29260.0 0.00019664 
29270.0 0.00023409 
29280.0 0.00020813 
29290.0 0.00027502 
29300.0 0.00031417 
29310.0 0.00013499 
29320.0 0.00032668 
29330.0 0.00016588 
29340.0 0.00020489 
29350.0 0.00035146 
29360.0 0.00026506 
29370.0 0.00013004 
29380.0 0.00031828 
29390.0 0.00020044 
29400.0 0.00011093 
29410.0 0.00026309 
29420.0 0.00021396 
29430.0 0.0003361  
29440.0 9.3809e-05 
29450.0 0.00012564 
29460.0 0.00024954 
29470.0 0.00011561 
29480.0 0.0002733  
29490.0 0.00010626 
29500.0 0.00020295 
29510.0 0.00022529 
29520.0 0.00010916 
29530.0 0.00022686 
29540.0 8.9395e-05 
29550.0 0.00031658 
29560.0 0.00017699 
29570.0 0.00023306 
29580.0 0.00024429 
29590.0 0.00025771 
29600.0 0.00024787 
29610.0 8.0536e-05 
29620.0 0.00034109 
29630.0 7.109e-05  
29640.0 0.00025345 
29650.0 0.00025495 
29660.0 0.00030361 
29670.0 0.00036309 
29680.0 0.00022506 
29690.0 0.00028457 
29700.0 0.00019272 
29710.0 0.00015744 
29720.0 0.00025419 
29730.0 0.00026892 
29740.0 0.00031954 
29750.0 0.00032103 
29760.0 0.00024964 
29770.0 0.00037429 
29780.0 0.00028979 
29790.0 0.00029107 
29800.0 9.2357e-05 
29810.0 0.00042153 
29820.0 0.00028366 
29830.0 0.00023408 
29840.0 0.00042885 
29850.0 0.00036725 
29860.0 0.00017293 
29870.0 0.00014871 
29880.0 0.00021489 
29890.0 0.00033743 
29900.0 0.00036468 
29910.0 0.00012422 
29920.0 0.00034365 
29930.0 0.00018102 
29940.0 0.00015465 
29950.0 0.00040509 
29960.0 0.00029618 
29970.0 0.00018652 
29980.0 0.00018784 
29990.0 0.00027431 
30000.0 0.0003178  
30010.0 0.00036524 
30020.0 0.00049728 
30030.0 0.00039891 
30040.0 0.00012124 
30050.0 0.00032974 
30060.0 0.00031801 
30070.0 0.00022925 
30080.0 0.00015534 
30090.0 0.00026176 
30100.0 0.00017325 
30110.0 0.00029781 
30120.0 0.00017415 
30130.0 0.00042795 
30140.0 0.00046187 
30150.0 0.00037018 
30160.0 0.00021185 
30170.0 0.00019664 
30180.0 0.00039373 
30190.0 0.00031476 
30200.0 0.00036684 
30210.0 0.00046808 
30220.0 0.00027171 
30230.0 0.00020595 
30240.0 0.00029462 
30250.0 0.00027809 
30260.0 0.00033012 
30270.0 0.00037004 
30280.0 0.00071836 
30290.0 0.0003738  
30300.0 0.00042867 
30310.0 0.00050595 
30320.0 0.00038121 
30330.0 0.00029454 
30340.0 0.00044154 
30350.0 0.00017004 
30360.0 0.00035639 
30370.0 0.00054704 
30380.0 0.00023056 
30390.0 0.00025097 
30400.0 0.00023448 
30410.0 0.00048713 
30420.0 0.00072078 
30430.0 0.00022065 
30440.0 0.00045869 
30450.0 0.00050251 
30460.0 0.00046396 
30470.0 0.00034774 
30480.0 0.00041347 
30490.0 0.00041563 
30500.0 0.00035679 
30510.0 0.00029593 
30520.0 0.00036316 
30530.0 0.00040814 
30540.0 7.0131e-05 
30550.0 0.00071603 
30560.0 0.00041762 
30570.0 0.00046557 
30580.0 0.00049007 
30590.0 0.00040351 
30600.0 0.00032112 
30610.0 0.00052442 
30620.0 0.0003023  
30630.0 0.00028324 
30640.0 0.00056018 
30650.0 0.0005428  
30660.0 0.00076154 
30670.0 0.00038524 
30680.0 0.00036631 
30690.0 7.8226e-05 
30700.0 0.00085764 
30710.0 0.00052138 
30720.0 0.00047772 
30730.0 0.00045466 
30740.0 0.00058814 
30750.0 0.00091995 
30760.0 0.0004928  
30770.0 0.00065234 
30780.0 0.00050479 
30790.0 0.00037431 
30800.0 0.00035341 
30810.0 0.0006533  
30820.0 0.00035857 
30830.0 0.00068806 
30840.0 0.00036467 
30850.0 0.00036913 
30860.0 0.00070708 
30870.0 0.00062633 
30880.0 0.00063292 
30890.0 0.00038226 
30900.0 0.00041424 
30910.0 0.00044565 
30920.0 0.0012734  
30930.0 0.00072005 
30940.0 0.00061005 
30950.0 0.0010056  
30960.0 0.00037168 
30970.0 0.0002868  
30980.0 0.0010351  
30990.0 0.0005431  
31000.0 0.00070503 
31010.0 0.00071145 
31020.0 0.00036544 
31030.0 0.00098741 
31040.0 0.00060384 
31050.0 0.00093436 
31060.0 0.00061383 
31070.0 0.00088507 
31080.0 0.00045407 
31090.0 0.00069678 
31100.0 0.00098161 
31110.0 0.00057101 
31120.0 0.0006824  
31130.0 0.0005435  
31140.0 0.00069143 
31150.0 0.00062725 
31160.0 0.0009575  
31170.0 0.00086085 
31180.0 0.00012356 
31190.0 0.0010609  
31200.0 0.0011457  
31210.0 0.00027695 
31220.0 0.00043609 
31230.0 0.00082832 
31240.0 0.00082921 
31250.0 0.00024901 
31260.0 0.00076586 
31270.0 0.00093274 
31280.0 0.00082368 
31290.0 0.00029842 
31300.0 0.00079474 
31310.0 0.00088362 
31320.0 0.00059739 
31330.0 0.00022098 
31340.0 9.7447e-05 
31350.0 0.001125   
31360.0 0.00053012 
31370.0 0.00088257 
31380.0 0.00079827 
31390.0 0.00072048 
31400.0 0.0010373  
31410.0 0.0011301  
31420.0 0.0011857  
31430.0 0.0011046  
31440.0 0.00056425 
31450.0 0.00070319 
31460.0 0.00052573 
31470.0 0.00076288 
31480.0 0.0011439  
31490.0 0.0010613  
31500.0 0.0010211  
31510.0 0.00073286 
31520.0 0.0010298  
31530.0 0.00083905 
31540.0 0.0015867  
31550.0 0.00095402 
31560.0 0.001212   
31570.0 0.00091819 
31580.0 0.00047049 
31590.0 0.0011843  
31600.0 0.00027401 
31610.0 0.0014104  
31620.0 0.00042865 
31630.0 0.0020048  
31640.0 0.00075768 
31650.0 0.0012874  
31660.0 0.0012442  
31670.0 0.0017357  
31680.0 0.0013186  
31690.0 0.0012167  
31700.0 0.0016103  
31710.0 0.0010143  
31720.0 0.0018514  
31730.0 0.0010253  
31740.0 0.00097763 
31750.0 0.0017188  
31760.0 0.0015032  
31770.0 0.0004764  
31780.0 0.0018733  
31790.0 0.0010688  
31800.0 0.0004331  
31810.0 0.0010889  
31820.0 0.0017546  
31830.0 0.0018869  
31840.0 0.0014188  
31850.0 0.00063712 
31860.0 0.0019437  
31870.0 0.00014234 
31880.0 0.0009661  
31890.0 0.0014185  
31900.0 0.0013754  
31910.0 0.0021     
31920.0 0.0013931  
31930.0 0.0016761  
31940.0 0.0021608  
31950.0 0.0016386  
31960.0 0.0013148  
31970.0 0.001749   
31980.0 0.0012758  
31990.0 0.0015739  
32000.0 0.0017298  
32010.0 0.00023203 
32020.0 0.0015468  
32030.0 0.0012029  
32040.0 0.001802   
32050.0 0.0012949  
32060.0 0.001689   
32070.0 0.00086104 
32080.0 0.0020286  
32090.0 0.0011192  
32100.0 0.0015235  
32110.0 0.0016153  
32120.0 0.0024333  
32130.0 0.0018164  
32140.0 0.00026917 
32150.0 0.0021055  
32160.0 0.0025497  
32170.0 0.0019847  
32180.0 0.0011451  
32190.0 0.0016811  
32200.0 0.00162    
32210.0 0.0017253  
32220.0 0.0020195  
32230.0 0.0022265  
32240.0 0.002806   
32250.0 0.0026628  
32260.0 0.0030619  
32270.0 0.001949   
32280.0 0.0020671  
32290.0 0.002288   
32300.0 0.001425   
32310.0 0.0018387  
32320.0 0.0025693  
32330.0 0.0025847  
32340.0 0.0026042  
32350.0 0.0029562  
32360.0 0.0015131  
32370.0 0.0028096  
32380.0 0.0026303  
32390.0 0.00081441 
32400.0 0.0023527  
32410.0 0.0026132  
32420.0 0.001512   
32430.0 0.0030268  
32440.0 0.0014333  
32450.0 0.0020529  
32460.0 0.0024431  
32470.0 0.0015199  
32480.0 0.0042533  
32490.0 0.0030704  
32500.0 0.0033866  
32510.0 0.0034389  
32520.0 0.0021764  
32530.0 0.0022208  
32540.0 0.0037941  
32550.0 0.0031494  
32560.0 0.0030815  
32570.0 0.0018211  
32580.0 0.0034929  
32590.0 0.0027974  
32600.0 0.0024009  
32610.0 0.0017875  
32620.0 0.0032761  
32630.0 0.0046407  
32640.0 0.0040585  
32650.0 0.0054763  
32660.0 0.0045234  
32670.0 0.0047685  
32680.0 0.0035926  
32690.0 0.0036568  
32700.0 0.0039254  
32710.0 0.0019166  
32720.0 0.0061071  
32730.0 0.0031462  
32740.0 0.0049012  
32750.0 0.0030492  
32760.0 0.0045088  
32770.0 0.0055679  
32780.0 0.0037974  
32790.0 0.0019646  
32800.0 0.0064975  
32810.0 0.0031558  
32820.0 0.0032109  
32830.0 0.0059555  
32840.0 0.0040721  
32850.0 0.0036524  
32860.0 0.0059174  
32870.0 0.0033432  
32880.0 0.0039253  
32890.0 0.0034848  
32900.0 0.0067803  
32910.0 0.0063591  
32920.0 0.0065036  
32930.0 0.0065869  
32940.0 0.002948   
32950.0 0.0062108  
32960.0 0.0074237  
32970.0 0.010103   
32980.0 0.0074964  
32990.0 0.0098201  
33000.0 0.0044043  
